"Spectral Irradiance Values for OL FEL-M S/N: F-1738.","[W/(cm^2 nm)]",10/30/22,250,1100,0	
250,	1.955E-08
260,	3.472E-08
270,	5.790E-08
280,	9.103E-08
290,	1.373E-07
300,	1.989E-07
310,	2.791E-07
320,	3.821E-07
330,	5.094E-07
340,	6.667E-07
350,	8.548E-07
360,	1.073E-06
370,	1.329E-06
380,	1.619E-06
390,	1.947E-06
400,	2.308E-06
450,	4.648E-06
500,	7.672E-06
555,	1.136E-05
600,	1.432E-05
654.6,	1.753E-05
700,	1.970E-05
800,	2.275E-05
900,	2.374E-05
1050,	2.248E-05
1100,	2.164E-05
