"Spectral Irradiance Values for OL FEL-M S/N: F-1744.","[W/(cm^2 nm)]",11/04/22,250,1100,0	
250,	1.832E-08
260,	3.288E-08
270,	5.515E-08
280,	8.720E-08
290,	1.318E-07
300,	1.913E-07
310,	2.690E-07
320,	3.688E-07
330,	4.926E-07
340,	6.460E-07
350,	8.298E-07
360,	1.044E-06
370,	1.294E-06
380,	1.579E-06
390,	1.899E-06
400,	2.252E-06
450,	4.560E-06
500,	7.555E-06
555,	1.122E-05
600,	1.417E-05
654.6,	1.738E-05
700,	1.956E-05
800,	2.266E-05
900,	2.368E-05
1050,	2.237E-05
1100,	2.157E-05
